Data from S030561_13-50-41-641.txt Node
Date: Thu Feb 22 13:50:41 GMT 2018
User: darren.whitaker
Spectrometer: S03056
Trigger mode: 0
Resolution mode: 1024 pixels
Integration Time (sec): 1.500000E0
Scans to average: 1
Nonlinearity correction enabled: false
Boxcar width: 0
Baseline correction enabled: true
XAxis mode: Wavelengths
Number of Pixels in Spectrum: 1024
>>>>>Begin Spectral Data<<<<<
184.595	8
185.045	-19
185.495	3
185.945	7
186.395	-48
186.845	22
187.295	4
187.745	34
188.195	31
188.646	-16
189.096	26
189.546	9
189.997	26
190.447	38
190.898	38
191.348	11
191.799	26
192.249	21
192.7	23
193.151	23
193.602	28
194.053	-16
194.504	26
194.955	-19
195.406	5
195.857	26
196.308	28
196.759	20
197.21	12
197.662	21
198.113	27
198.564	15
199.016	13
199.467	-7
199.919	24
200.371	-6
200.822	34
201.274	32
201.726	-2
202.178	9
202.63	30
203.082	20
203.534	38
203.986	26
204.438	10
204.89	39
205.342	25
205.794	10
206.247	38
206.699	1
207.152	16
207.604	38
208.057	26
208.509	35
208.962	35.5
209.415	36
209.867	40
210.32	28
210.773	-7
211.226	48
211.679	-10
212.132	-21
212.585	-3
213.038	44
213.491	31
213.944	18
214.398	8
214.851	23
215.304	33
215.758	41
216.211	21
216.665	35
217.119	36
217.572	5
218.026	17
218.48	50
218.933	61
219.387	62
219.841	47
220.295	46
220.749	57
221.203	23
221.657	61
222.112	61
222.566	42
223.02	66
223.474	66
223.929	41
224.383	56
224.838	73
225.292	63
225.747	70
226.202	61
226.656	62
227.111	16
227.566	73
228.021	67
228.476	57
228.931	57
229.386	67
229.841	69
230.296	85
230.751	93
231.206	81
231.661	82
232.117	75
232.572	81
233.027	72
233.483	36
233.938	51
234.394	81
234.85	95
235.305	93
235.761	84
236.217	110
236.673	63
237.129	84
237.585	83
238.041	100
238.497	105
238.953	110
239.409	63
239.865	108
240.321	99
240.778	104
241.234	50
241.69	49
242.147	97
242.603	98
243.06	111
243.517	115
243.973	109
244.43	100
244.887	109
245.343	94
245.8	103
246.257	76
246.714	88
247.171	107
247.628	128
248.085	111
248.543	120
249	110
249.457	105
249.914	67
250.372	126
250.829	107
251.287	125
251.744	105
252.202	17
252.659	136
253.117	59
253.575	123
254.033	116
254.491	119
254.948	132
255.406	133
255.864	123
256.322	129
256.78	134
257.239	114
257.697	131
258.155	75
258.613	128
259.072	136
259.53	103
259.988	129
260.447	132
260.906	109
261.364	105
261.823	103
262.281	113
262.74	130
263.199	123
263.658	126
264.117	108
264.576	116
265.035	110
265.494	146
265.953	120
266.412	137
266.871	108
267.33	103
267.79	121
268.249	143
268.708	128
269.168	120
269.627	129
270.087	140
270.546	139
271.006	122
271.466	99
271.926	127
272.385	116
272.845	139
273.305	142
273.765	118
274.225	135
274.685	149
275.145	151
275.605	111
276.065	147
276.526	133
276.986	140
277.446	144
277.907	121
278.367	138
278.828	122
279.288	93
279.749	158
280.209	103
280.67	127
281.131	151
281.592	155
282.052	139
282.513	143
282.974	134
283.435	154
283.896	152
284.357	154
284.818	159
285.28	125
285.741	138
286.202	88
286.663	152
287.125	147
287.586	143
288.048	171
288.509	120
288.971	157
289.432	166
289.894	162
290.356	159
290.818	135
291.279	175
291.741	184
292.203	165
292.665	180
293.127	188
293.589	168
294.051	187
294.513	160
294.976	182
295.438	186
295.9	182
296.363	177
296.825	189
297.287	214
297.75	224
298.212	220
298.675	195
299.138	205
299.6	210
300.063	219
300.526	223
300.989	229
301.452	246
301.914	231
302.377	264
302.84	179
303.304	261
303.767	291
304.23	283
304.693	286
305.156	259
305.62	296
306.083	299
306.546	301
307.01	294
307.473	312
307.937	306
308.4	314
308.864	313
309.328	328
309.792	252
310.255	294
310.719	336
311.183	290
311.647	323
312.111	310
312.575	286
313.039	331
313.503	338
313.967	334
314.432	354
314.896	264
315.36	289
315.825	310
316.289	299
316.753	341
317.218	362
317.683	341
318.147	340
318.612	342
319.076	351
319.541	317
320.006	360
320.471	366
320.936	317
321.401	332
321.866	343
322.331	354
322.796	351
323.261	351
323.726	330
324.191	351
324.656	345
325.122	351
325.587	355
326.053	334
326.518	357
326.983	329
327.449	343
327.915	343
328.38	354
328.846	358
329.312	315
329.777	346
330.243	318
330.709	222
331.175	343
331.641	351
332.107	367
332.573	374
333.039	363
333.505	353
333.972	337
334.438	361
334.904	369
335.37	357
335.837	362
336.303	316
336.77	378
337.236	363
337.703	325
338.169	369
338.636	372
339.103	375
339.569	391
340.036	375
340.503	372
340.97	339
341.437	361
341.904	393
342.371	380
342.838	396
343.305	374
343.772	352
344.24	354
344.707	369
345.174	349
345.641	365
346.109	362
346.576	340
347.044	364
347.511	369
347.979	267
348.447	371
348.914	369
349.382	351
349.85	365
350.318	325
350.785	335
351.253	367
351.721	354
352.189	366
352.657	362
353.125	361
353.594	328
354.062	363
354.53	356
354.998	359
355.466	367
355.935	368
356.403	324
356.872	294
357.34	371
357.809	354
358.277	357
358.746	362
359.215	369
359.683	363
360.152	372
360.621	355
361.09	368
361.559	370
362.028	368
362.497	383
362.966	362
363.435	336
363.904	385
364.373	382
364.842	380
365.312	392
365.781	394
366.25	379
366.72	355
367.189	390
367.658	373
368.128	394
368.598	386
369.067	375
369.537	373
370.007	400
370.476	388
370.946	389
371.416	380
371.886	346
372.356	385
372.826	393
373.296	377
373.766	369
374.236	368
374.706	396
375.176	369
375.647	372
376.117	371
376.587	315
377.058	362
377.528	385
377.998	379
378.469	397
378.94	397
379.41	384
379.881	393
380.351	347
380.822	375
381.293	351
381.764	385
382.235	350
382.706	277
383.177	358
383.648	332
384.119	383
384.59	373
385.061	339
385.532	378
386.003	385
386.474	358
386.946	358
387.417	388
387.888	366
388.36	264
388.831	372
389.303	353
389.774	333
390.246	325
390.718	372
391.189	363
391.661	377
392.133	357
392.605	382
393.077	250
393.549	358
394.021	412
394.493	366
394.965	373
395.437	341
395.909	362
396.381	392
396.853	364
397.325	414
397.798	377
398.27	345
398.743	368
399.215	388
399.687	374
400.16	377
400.633	386
401.105	322
401.578	370
402.051	383
402.523	361
402.996	355
403.469	384
403.942	343
404.415	387
404.888	366
405.361	363
405.834	365
406.307	356
406.78	303
407.253	390
407.726	294
408.199	364
408.673	355
409.146	353
409.619	344
410.093	322
410.566	342
411.04	309
411.513	280
411.987	339
412.461	336
412.934	317
413.408	341
413.882	330
414.356	312
414.829	346
415.303	311
415.777	323
416.251	348
416.725	320
417.199	299
417.673	323
418.148	288
418.622	345
419.096	315
419.57	348
420.045	335
420.519	331
420.993	339
421.468	334
421.942	327
422.417	324
422.891	351
423.366	309
423.841	348
424.315	329
424.79	341
425.265	261
425.74	325
426.215	290
426.689	298
427.164	322
427.639	339
428.114	361
428.589	347
429.065	344
429.54	352
430.015	367
430.49	308
430.965	307
431.441	348
431.916	341
432.392	337
432.867	327
433.342	357
433.818	349
434.294	344
434.769	366
435.245	326
435.721	350
436.196	350
436.672	347
437.148	354
437.624	367
438.1	380
438.576	315
439.052	317
439.528	360
440.004	324
440.48	333
440.956	314
441.432	323
441.908	343
442.385	313
442.861	231
443.337	347
443.814	318
444.29	330
444.767	336
445.243	351
445.72	338
446.196	355
446.673	363
447.15	335
447.626	343
448.103	338
448.58	338
449.057	324
449.534	332
450.01	329
450.487	328
450.964	301
451.442	352
451.919	314
452.396	309
452.873	307
453.35	305
453.827	354
454.305	316
454.782	301
455.259	263
455.737	311
456.214	305
456.692	290
457.169	300
457.647	306
458.124	321
458.602	330
459.08	301
459.557	295
460.035	302
460.513	297
460.991	318
461.469	305
461.947	288
462.425	288
462.903	301
463.381	287
463.859	324
464.337	309
464.815	322
465.293	302
465.772	282
466.25	271
466.728	337
467.207	309
467.685	309
468.164	283
468.642	248
469.121	289
469.599	269
470.078	286
470.556	265
471.035	281
471.514	258
471.993	289
472.471	257
472.95	302
473.429	302
473.908	297
474.387	325
474.866	310
475.345	333
475.824	290
476.303	293
476.782	339
477.262	296
477.741	340
478.22	322
478.7	311
479.179	329
479.658	348
480.138	341
480.617	322
481.097	342
481.576	335
482.056	331
482.535	361
483.015	331
483.495	398
483.975	376
484.454	422
484.934	396
485.414	373
485.894	429
486.374	408
486.854	414
487.334	406
487.814	420
488.294	398
488.774	379
489.254	394
489.735	379
490.215	359
490.695	360
491.176	340
491.656	250
492.136	367
492.617	313
493.097	358
493.578	330
494.058	358
494.539	367
495.02	359
495.5	324
495.981	358
496.462	349
496.943	321
497.423	343
497.904	306
498.385	346
498.866	325
499.347	323
499.828	334
500.309	247
500.79	332
501.271	342
501.753	347
502.234	235
502.715	324
503.196	316
503.678	327
504.159	339
504.64	304
505.122	258
505.603	333
506.085	319
506.566	311
507.048	305
507.53	294
508.011	237
508.493	311
508.975	297
509.457	265
509.938	256
510.42	316
510.902	280
511.384	318
511.866	311
512.348	311
512.83	296
513.312	294
513.794	318
514.276	295
514.759	287
515.241	304
515.723	295
516.206	229
516.688	242
517.17	293
517.653	286
518.135	280
518.618	270
519.1	267
519.583	229
520.065	255
520.548	277
521.031	222
521.513	204
521.996	265
522.479	252
522.962	274
523.445	259
523.927	262
524.41	254
524.893	253
525.376	241
525.859	251
526.343	247
526.826	220
527.309	197
527.792	256
528.275	233
528.759	255
529.242	243
529.725	243
530.209	199
530.692	181
531.175	242
531.659	204
532.142	229
532.626	250
533.11	241
533.593	214
534.077	241
534.561	252
535.044	255
535.528	239
536.012	262
536.496	231
536.98	257
537.464	254
537.948	250
538.432	250
538.916	270
539.4	279
539.884	284
540.368	272
540.852	317
541.336	300
541.821	329
542.305	338
542.789	333
543.274	319
543.758	348
544.243	349
544.727	366
545.211	346
545.696	362
546.181	357
546.665	326
547.15	290
547.635	321
548.119	264
548.604	257
549.089	284
549.574	286
550.059	260
550.543	277
551.028	271
551.513	224
551.998	249
552.483	248
552.968	261
553.454	223
553.939	270
554.424	269
554.909	243
555.394	249
555.88	253
556.365	250
556.85	246
557.336	256
557.821	254
558.307	272
558.792	242
559.278	268
559.763	232
560.249	266
560.735	267
561.22	258
561.706	288
562.192	274
562.677	281
563.163	279
563.649	291
564.135	276
564.621	276
565.107	262
565.593	274
566.079	263
566.565	292
567.051	275
567.537	304
568.023	308
568.51	335
568.996	360
569.482	352
569.968	391
570.455	402
570.941	412
571.428	417
571.914	433
572.4	472
572.887	463
573.374	467
573.86	479
574.347	490
574.833	485
575.32	476
575.807	552
576.294	549
576.78	548
577.267	554
577.754	560
578.241	572
578.728	577
579.215	574
579.702	605.5
580.189	637
580.676	573
581.163	605
581.65	569
582.137	609
582.625	614.5
583.112	620
583.599	613
584.086	587
584.574	589
585.061	591
585.548	602
586.036	587
586.523	562
587.011	567
587.498	571
587.986	543
588.474	515
588.961	517
589.449	492
589.937	431
590.424	483
590.912	505
591.4	480
591.888	484
592.376	491
592.864	447
593.352	505
593.84	491
594.328	508
594.816	509
595.304	511
595.792	480
596.28	466
596.768	503
597.256	498
597.745	497
598.233	497
598.721	473
599.209	509
599.698	533
600.186	529
600.675	508
601.163	528
601.652	517
602.14	518
602.629	491
603.117	475
603.606	499
604.095	512
604.583	453
605.072	522
605.561	546
606.05	497
606.539	519
607.028	525
607.516	480
608.005	563
608.494	569
608.983	555
609.472	603
609.961	555
610.451	592
610.94	593
611.429	618
611.918	610
612.407	608
612.897	582
613.386	556
613.875	556
614.365	514
614.854	529
615.343	485
615.833	504
616.322	477
616.812	460
617.301	455
617.791	448
618.281	371
618.77	419
619.26	422
619.75	387
620.24	399
620.729	406
621.219	411.5
621.709	417
622.199	407
622.689	411
623.179	366
623.669	390
624.159	368
624.649	373
625.139	339
625.629	367
626.119	381
626.609	348
627.099	363
627.59	350
628.08	345
628.57	340
629.061	355
629.551	342
630.041	338
630.532	319
631.022	333
631.513	311
632.003	296
632.494	202
632.984	302
633.475	292
633.966	294
634.456	279
634.947	286
635.438	282
635.929	212
636.419	286
636.91	272
637.401	279
637.892	288
638.383	283
638.874	247
639.365	204
639.856	290
640.347	251
640.838	259
641.329	192
641.82	248
642.311	277
642.803	272
643.294	262
643.785	282
644.277	275
644.768	245
645.259	265
645.751	272
646.242	241
646.734	293
647.225	285
647.717	277
648.208	284
648.7	310
649.191	298
649.683	300
650.175	286
650.666	313
651.158	281
651.65	288
652.142	343
652.633	411
653.125	476
653.617	512
654.109	537
654.601	571
655.093	578
655.585	550
656.077	576
656.569	571
657.061	564
657.553	537
658.046	428
658.538	369
659.03	286
659.522	337
660.015	273
660.507	271
660.999	281
661.492	284
661.984	260
662.476	284
662.969	281
663.461	281
663.954	282
664.446	269
664.939	280
665.432	295
665.924	275
666.417	296
666.91	266
667.402	302
667.895	289
668.388	271
668.881	302
