Data from S030561_13-51-59-897.txt Node
Date: Thu Feb 22 13:51:59 GMT 2018
User: darren.whitaker
Spectrometer: S03056
Trigger mode: 0
Resolution mode: 1024 pixels
Integration Time (sec): 1.500000E0
Scans to average: 1
Nonlinearity correction enabled: false
Boxcar width: 0
Baseline correction enabled: true
XAxis mode: Wavelengths
Number of Pixels in Spectrum: 1024
>>>>>Begin Spectral Data<<<<<
184.595	2
185.045	-22
185.495	-6
185.945	5
186.395	-53
186.845	16
187.295	1
187.745	25
188.195	25
188.646	-28
189.096	21
189.546	5
189.997	21
190.447	33
190.898	32
191.348	5
191.799	20
192.249	16
192.7	15
193.151	16
193.602	25
194.053	-25
194.504	19
194.955	-26
195.406	0
195.857	21
196.308	22
196.759	15
197.21	7
197.662	20
198.113	25
198.564	10
199.016	9
199.467	-18
199.919	13
200.371	-12
200.822	28
201.274	31
201.726	-10
202.178	3
202.63	29
203.082	12
203.534	29
203.986	16
204.438	9
204.89	40
205.342	21
205.794	3
206.247	33
206.699	-5
207.152	12
207.604	34
208.057	20
208.509	32
208.962	33
209.415	34
209.867	35
210.32	24
210.773	-8
211.226	41
211.679	-17
212.132	-27
212.585	-14
213.038	42
213.491	24
213.944	16
214.398	6
214.851	18
215.304	29
215.758	34
216.211	20
216.665	33
217.119	32
217.572	2
218.026	17
218.48	45
218.933	62
219.387	61
219.841	44
220.295	44
220.749	55
221.203	23
221.657	56
222.112	55
222.566	39
223.02	63
223.474	61
223.929	43
224.383	56
224.838	74
225.292	64
225.747	73
226.202	60
226.656	59
227.111	23
227.566	74
228.021	66
228.476	57
228.931	61
229.386	74
229.841	71
230.296	98
230.751	93
231.206	80
231.661	87
232.117	74
232.572	79
233.027	76
233.483	41
233.938	56
234.394	85
234.85	105
235.305	98
235.761	93
236.217	116
236.673	71
237.129	93
237.585	89
238.041	110
238.497	116
238.953	124
239.409	75
239.865	121
240.321	121
240.778	111
241.234	62
241.69	65
242.147	111
242.603	113
243.06	121
243.517	136
243.973	127
244.43	114
244.887	131
245.343	115
245.8	123
246.257	101
246.714	105
247.171	124
247.628	153
248.085	137
248.543	143
249	133
249.457	129
249.914	98
250.372	151
250.829	139
251.287	152
251.744	136
252.202	43
252.659	166
253.117	99
253.575	150
254.033	149
254.491	155
254.948	171
255.406	171
255.864	165
256.322	176
256.78	179
257.239	153
257.697	178
258.155	121
258.613	180
259.072	188
259.53	156
259.988	181
260.447	185
260.906	162
261.364	161
261.823	159
262.281	174
262.74	185
263.199	182
263.658	183
264.117	160
264.576	171
265.035	170
265.494	209
265.953	189
266.412	199
266.871	170
267.33	171
267.79	186
268.249	206
268.708	193
269.168	187
269.627	194
270.087	210
270.546	207
271.006	185
271.466	170
271.926	201
272.385	184
272.845	208
273.305	215
273.765	186
274.225	204
274.685	218
275.145	217
275.605	182
276.065	221
276.526	207
276.986	212
277.446	218
277.907	201
278.367	209
278.828	190
279.288	170
279.749	232
280.209	187
280.67	202
281.131	229
281.592	232
282.052	222
282.513	222
282.974	211
283.435	237
283.896	238
284.357	243
284.818	240
285.28	209
285.741	232
286.202	175
286.663	236
287.125	230
287.586	234
288.048	265
288.509	211
288.971	248
289.432	256
289.894	254
290.356	248
290.818	221
291.279	264
291.741	275
292.203	259
292.665	266
293.127	271
293.589	249
294.051	277
294.513	245
294.976	264
295.438	273
295.9	264
296.363	255
296.825	270
297.287	293
297.75	302
298.212	295
298.675	271
299.138	279
299.6	278
300.063	286
300.526	285
300.989	300
301.452	308
301.914	285
302.377	323
302.84	235
303.304	315
303.767	341
304.23	327
304.693	329
305.156	302
305.62	350
306.083	348
306.546	345
307.01	335
307.473	350
307.937	352
308.4	352
308.864	341
309.328	363
309.792	288
310.255	333
310.719	376
311.183	321
311.647	367
312.111	357
312.575	319
313.039	370
313.503	380
313.967	371
314.432	398
314.896	297
315.36	328
315.825	350
316.289	335
316.753	381
317.218	405
317.683	376
318.147	385
318.612	382
319.076	395
319.541	360
320.006	402
320.471	408
320.936	362
321.401	376
321.866	387
322.331	396
322.796	394
323.261	391
323.726	372
324.191	392
324.656	388
325.122	391
325.587	395
326.053	377
326.518	401
326.983	378
327.449	390
327.915	382
328.38	398
328.846	397
329.312	363
329.777	392
330.243	367
330.709	263
331.175	386
331.641	394
332.107	411
332.573	422
333.039	409
333.505	392
333.972	386
334.438	410
334.904	419
335.37	411
335.837	412
336.303	369
336.77	433
337.236	411
337.703	379
338.169	427
338.636	426
339.103	428
339.569	441
340.036	429
340.503	427
340.97	394
341.437	415
341.904	448
342.371	429
342.838	447
343.305	432
343.772	406
344.24	406
344.707	421
345.174	405
345.641	424
346.109	417
346.576	394
347.044	417
347.511	427
347.979	318
348.447	424
348.914	423
349.382	410
349.85	420
350.318	373
350.785	387
351.253	425
351.721	409
352.189	426
352.657	412
353.125	414
353.594	386
354.062	422
354.53	417
354.998	414
355.466	426
355.935	422
356.403	374
356.872	351
357.34	427
357.809	411
358.277	413
358.746	421
359.215	432
359.683	419
360.152	427
360.621	419
361.09	427
361.559	431
362.028	424
362.497	442
362.966	425
363.435	398
363.904	445
364.373	444
364.842	439
365.312	458
365.781	450
366.25	437
366.72	418
367.189	454
367.658	431
368.128	456
368.598	454
369.067	442
369.537	438
370.007	463
370.476	455
370.946	456
371.416	450
371.886	407
372.356	452
372.826	456
373.296	445
373.766	435
374.236	439
374.706	466
375.176	434
375.647	438
376.117	435
376.587	383
377.058	426
377.528	455
377.998	447
378.469	463
378.94	466
379.41	457
379.881	460
380.351	416
380.822	437
381.293	415
381.764	449
382.235	417
382.706	337
383.177	423
383.648	401
384.119	455
384.59	440
385.061	410
385.532	451
386.003	453
386.474	423
386.946	419
387.417	462
387.888	432
388.36	327
388.831	434
389.303	416
389.774	403
390.246	401
390.718	438
391.189	429
391.661	446
392.133	426
392.605	447
393.077	316
393.549	428
394.021	489
394.493	436
394.965	442
395.437	403
395.909	429
396.381	463
396.853	433
397.325	487
397.798	447
398.27	414
398.743	440
399.215	457
399.687	443
400.16	454
400.633	457
401.105	386
401.578	436
402.051	455
402.523	430
402.996	423
403.469	446
403.942	405
404.415	452
404.888	430
405.361	430
405.834	432
406.307	420
406.78	366
407.253	451
407.726	362
408.199	431
408.673	426
409.146	421
409.619	410
410.093	382
410.566	412
411.04	373
411.513	340
411.987	399
412.461	397
412.934	377
413.408	404
413.882	395
414.356	378
414.829	406
415.303	376
415.777	382
416.251	407
416.725	382
417.199	356
417.673	383
418.148	348
418.622	404
419.096	376
419.57	410
420.045	402
420.519	385
420.993	400
421.468	392
421.942	382
422.417	388
422.891	408
423.366	370
423.841	407
424.315	394
424.79	404
425.265	320
425.74	384
426.215	345
426.689	361
427.164	382
427.639	401
428.114	429
428.589	409
429.065	405
429.54	410
430.015	439
430.49	368
430.965	367
431.441	403
431.916	402
432.392	393
432.867	381
433.342	401
433.818	399
434.294	386
434.769	411
435.245	369
435.721	390
436.196	392
436.672	391
437.148	394
437.624	410.5
438.1	427
438.576	362
439.052	373
439.528	418
440.004	384
440.48	384
440.956	372
441.432	382
441.908	411
442.385	368
442.861	289
443.337	410
443.814	379
444.29	387
444.767	397
445.243	412
445.72	396
446.196	414
446.673	428
447.15	397
447.626	404
448.103	404
448.58	397
449.057	384
449.534	388
450.01	385
450.487	384
450.964	355
451.442	418
451.919	363
452.396	360
452.873	361.5
453.35	363
453.827	411
454.305	373
454.782	356
455.259	311
455.737	373
456.214	357
456.692	344
457.169	353
457.647	366
458.124	372
458.602	386
459.08	352
459.557	348
460.035	362
460.513	353
460.991	375
461.469	358
461.947	345
462.425	344
462.903	356
463.381	346
463.859	376
464.337	366
464.815	380
465.293	355
465.772	334
466.25	329
466.728	389
467.207	362
467.685	369
468.164	338
468.642	300
469.121	342
469.599	323
470.078	344
470.556	318
471.035	333
471.514	308
471.993	342
472.471	303
472.95	354
473.429	351
473.908	347
474.387	383
474.866	369
475.345	398
475.824	347
476.303	353
476.782	403
477.262	351
477.741	403
478.22	386
478.7	376
479.179	389
479.658	416
480.138	402
480.617	390
481.097	402
481.576	402
482.056	396
482.535	424
483.015	390
483.495	460
483.975	439
484.454	485
484.934	454
485.414	429
485.894	486
486.374	466
486.854	470
487.334	461
487.814	474
488.294	458
488.774	435
489.254	448
489.735	422
490.215	413
490.695	407
491.176	390
491.656	297
492.136	413
492.617	355
493.097	407
493.578	382
494.058	403
494.539	418
495.02	416
495.5	374
495.981	418
496.462	406
496.943	378
497.423	401
497.904	356
498.385	401
498.866	384
499.347	378
499.828	389
500.309	303
500.79	384
501.271	397
501.753	406
502.234	293
502.715	385
503.196	379
503.678	390
504.159	403
504.64	366
505.122	322
505.603	393
506.085	378
506.566	372
507.048	365
507.53	357
508.011	291
508.493	377
508.975	360
509.457	324
509.938	320
510.42	376
510.902	332
511.384	375
511.866	369
512.348	371
512.83	353
513.312	353
513.794	372
514.276	345
514.759	345
515.241	355
515.723	347
516.206	283
516.688	294
517.17	349
517.653	343
518.135	331
518.618	322
519.1	326
519.583	278
520.065	306
520.548	325
521.031	279
521.513	251
521.996	317
522.479	300
522.962	323
523.445	309
523.927	308
524.41	302
524.893	292
525.376	284
525.859	295
526.343	296
526.826	265
527.309	235
527.792	297
528.275	281
528.759	295
529.242	284
529.725	287
530.209	241
530.692	222
531.175	281
531.659	240
532.142	269
532.626	293
533.11	280
533.593	251
534.077	279
534.561	286
535.044	294
535.528	268
536.012	296
536.496	267
536.98	288
537.464	283
537.948	279
538.432	274
538.916	291
539.4	294
539.884	286
540.368	273
540.852	308
541.336	282
541.821	307
542.305	314
542.789	295
543.274	270
543.758	299
544.243	307
544.727	331
545.211	315
545.696	331
546.181	335
546.665	313
547.15	279
547.635	315
548.119	263
548.604	274
549.089	293
549.574	304
550.059	281
550.543	297
551.028	293
551.513	244
551.998	280
552.483	278
552.968	295
553.454	259
553.939	310
554.424	314
554.909	290
555.394	293
555.88	294
556.365	303
556.85	293
557.336	311
557.821	305
558.307	320
558.792	295
559.278	322
559.763	280
560.249	323
560.735	325
561.22	318
561.706	350
562.192	335
562.677	345
563.163	342
563.649	356
564.135	336
564.621	331
565.107	330
565.593	336
566.079	329
566.565	356
567.051	345
567.537	380
568.023	386
568.51	417
568.996	448
569.482	444
569.968	488
570.455	503
570.941	512
571.428	529
571.914	540
572.4	585
572.887	586
573.374	582
573.86	599
574.347	611
574.833	607
575.32	604
575.807	683
576.294	682
576.78	678
577.267	688
577.754	688
578.241	713
578.728	718
579.215	713
579.702	745.5
580.189	778
580.676	711
581.163	736
581.65	706
582.137	747
582.625	752
583.112	757
583.599	754
584.086	719
584.574	718.5
585.061	718
585.548	724
586.036	699
586.523	678
587.011	689
587.498	685
587.986	654
588.474	617
588.961	628
589.449	598
589.937	533
590.424	592
590.912	616
591.4	599
591.888	605
592.376	603
592.864	558
593.352	630
593.84	609
594.328	626
594.816	633
595.304	630
595.792	604
596.28	584
596.768	627
597.256	635
597.745	633
598.233	631
598.721	612
599.209	647
599.698	666
600.186	666
600.675	646
601.163	666
601.652	656
602.14	657
602.629	634
603.117	610
603.606	632
604.095	653
604.583	589
605.072	659
605.561	684
606.05	635
606.539	651
607.028	651
607.516	597
608.005	673
608.494	649
608.983	632
609.472	662
609.961	603
610.451	627
610.94	624
611.429	648
611.918	640
612.407	641
612.897	618
613.386	595
613.875	618
614.365	582
614.854	607
615.343	570
615.833	595
616.322	570
616.812	551
617.301	542
617.791	544
618.281	457
618.77	501
619.26	508
619.75	471
620.24	483
620.729	482
621.219	491
621.709	500
622.199	490
622.689	497
623.179	454
623.669	481
624.159	454
624.649	464
625.139	427
625.629	459
626.119	468
626.609	432
627.099	451
627.59	430
628.08	431
628.57	418
629.061	434
629.551	414
630.041	408
630.532	394
631.022	400
631.513	384
632.003	372
632.494	276
632.984	372
633.475	368
633.966	372
634.456	354
634.947	363
635.438	362
635.929	286
636.419	362
636.91	352
637.401	362
637.892	361
638.383	360
638.874	321
639.365	277
639.856	361
640.347	334
640.838	333
641.329	267
641.82	323
642.311	354
642.803	347
643.294	334
643.785	357
644.277	352
644.768	322
645.259	340
645.751	347
646.242	327
646.734	371
647.225	364
647.717	360
648.208	363
648.7	389
649.191	375
649.683	378
650.175	364
650.666	388
651.158	355
651.65	367
652.142	436
652.633	522
653.125	604
653.617	656
654.109	699
654.601	737
655.093	751
655.585	719
656.077	746
656.569	738
657.061	733
657.553	691
658.046	559
658.538	484
659.03	390
659.522	428
660.015	353
660.507	354
660.999	362
661.492	371
661.984	337
662.476	362
662.969	366
663.461	366
663.954	359
664.446	348
664.939	362
665.432	375
665.924	356
666.417	376
666.91	353
667.402	376
667.895	367
668.388	356
668.881	384
